Saved at time: 9887414 milliseconds
Integration time: 1500000
Scans to average: 0
Boxcar smoothing: 0
Wavelengths	Intensities
337.35134888	1659.00000000
337.80362194	1670.00000000
338.25595141	1683.00000000
338.70833725	1665.00000000
339.16077942	1649.00000000
339.61327788	1627.00000000
340.06583261	1658.00000000
340.51844356	1585.00000000
340.97111069	1603.00000000
341.42383397	1588.00000000
341.87661336	1563.00000000
342.32944883	1593.00000000
342.78234033	1610.00000000
343.23528784	1622.00000000
343.68829131	1661.00000000
344.14135070	1627.00000000
344.59446599	1658.00000000
345.04763714	1610.00000000
345.50086410	1589.00000000
345.95414684	1667.00000000
346.40748532	1622.00000000
346.86087951	1621.00000000
347.31432937	1640.00000000
347.76783486	1672.00000000
348.22139595	1628.00000000
348.67501260	1628.00000000
349.12868478	1646.00000000
349.58241244	1621.00000000
350.03619554	1658.00000000
350.49003406	1640.00000000
350.94392796	1632.00000000
351.39787720	1599.00000000
351.85188173	1627.00000000
352.30594153	1588.00000000
352.76005657	1615.00000000
353.21422679	1594.00000000
353.66845217	1640.00000000
354.12273266	1590.00000000
354.57706824	1605.00000000
355.03145886	1620.00000000
355.48590449	1644.00000000
355.94040509	1641.00000000
356.39496062	1622.00000000
356.84957105	1625.00000000
357.30423634	1645.00000000
357.75895646	1647.00000000
358.21373136	1616.00000000
358.66856102	1580.00000000
359.12344538	1643.00000000
359.57838442	1653.00000000
360.03337811	1564.00000000
360.48842639	1643.00000000
360.94352924	1572.00000000
361.39868662	1639.00000000
361.85389850	1631.00000000
362.30916483	1637.00000000
362.76448558	1660.00000000
363.21986071	1589.00000000
363.67529018	1612.00000000
364.13077397	1648.00000000
364.58631202	1641.00000000
365.04190431	1595.00000000
365.49755080	1571.00000000
365.95325145	1668.00000000
366.40900623	1590.00000000
366.86481509	1643.00000000
367.32067801	1668.00000000
367.77659494	1641.00000000
368.23256584	1657.00000000
368.68859069	1633.00000000
369.14466944	1604.00000000
369.60080206	1648.00000000
370.05698851	1602.00000000
370.51322875	1555.00000000
370.96952275	1597.00000000
371.42587047	1658.00000000
371.88227187	1665.00000000
372.33872691	1661.00000000
372.79523557	1592.00000000
373.25179780	1576.00000000
373.70841357	1630.00000000
374.16508283	1632.00000000
374.62180556	1640.00000000
375.07858171	1652.00000000
375.53541125	1663.00000000
375.99229415	1654.00000000
376.44923035	1552.00000000
376.90621984	1604.00000000
377.36326257	1662.00000000
377.82035850	1601.00000000
378.27750760	1615.00000000
378.73470984	1325.00000000
379.19196516	1608.00000000
379.64927355	1654.00000000
380.10663495	1513.00000000
380.56404934	1598.00000000
381.02151668	1625.00000000
381.47903693	1668.00000000
381.93661005	1617.00000000
382.39423600	1592.00000000
382.85191476	1651.00000000
383.30964628	1608.00000000
383.76743053	1617.00000000
384.22526746	1626.00000000
384.68315705	1594.00000000
385.14109926	1653.00000000
385.59909404	1622.00000000
386.05714137	1630.00000000
386.51524120	1634.00000000
386.97339351	1615.00000000
387.43159824	1613.00000000
387.88985537	1635.00000000
388.34816486	1645.00000000
388.80652667	1630.00000000
389.26494076	1654.00000000
389.72340710	1644.00000000
390.18192566	1640.00000000
390.64049638	1633.00000000
391.09911925	1649.00000000
391.55779422	1587.00000000
392.01652125	1656.00000000
392.47530030	1633.00000000
392.93413135	1507.00000000
393.39301436	1669.00000000
393.85194927	1648.00000000
394.31093607	1572.00000000
394.76997472	1634.00000000
395.22906517	1611.00000000
395.68820739	1572.00000000
396.14740134	1663.00000000
396.60664699	1690.00000000
397.06594429	1622.00000000
397.52529322	1657.00000000
397.98469374	1651.00000000
398.44414581	1628.00000000
398.90364938	1581.00000000
399.36320444	1664.00000000
399.82281093	1642.00000000
400.28246882	1634.00000000
400.74217808	1680.00000000
401.20193867	1626.00000000
401.66175054	1645.00000000
402.12161368	1667.00000000
402.58152803	1649.00000000
403.04149356	1627.00000000
403.50151023	1682.00000000
403.96157802	1657.00000000
404.42169687	1649.00000000
404.88186676	1627.00000000
405.34208764	1616.00000000
405.80235949	1656.00000000
406.26268226	1606.00000000
406.72305591	1618.00000000
407.18348042	1672.00000000
407.64395574	1682.00000000
408.10448183	1653.00000000
408.56505866	1581.00000000
409.02568620	1602.00000000
409.48636440	1593.00000000
409.94709324	1636.00000000
410.40787266	1620.00000000
410.86870264	1564.00000000
411.32958314	1649.00000000
411.79051412	1624.00000000
412.25149554	1518.00000000
412.71252738	1590.00000000
413.17360958	1646.00000000
413.63474212	1653.00000000
414.09592496	1660.00000000
414.55715806	1684.00000000
415.01844138	1616.00000000
415.47977490	1613.00000000
415.94115856	1666.00000000
416.40259233	1677.00000000
416.86407619	1583.00000000
417.32561008	1593.00000000
417.78719398	1661.00000000
418.24882784	1608.00000000
418.71051164	1686.00000000
419.17224533	1599.00000000
419.63402887	1671.00000000
420.09586223	1664.00000000
420.55774538	1629.00000000
421.01967827	1621.00000000
421.48166087	1646.00000000
421.94369315	1599.00000000
422.40577506	1662.00000000
422.86790657	1626.00000000
423.33008764	1511.00000000
423.79231823	1666.00000000
424.25459832	1671.00000000
424.71692786	1604.00000000
425.17930681	1642.00000000
425.64173514	1629.00000000
426.10421281	1650.00000000
426.56673978	1602.00000000
427.02931602	1532.00000000
427.49194150	1639.00000000
427.95461617	1670.00000000
428.41733999	1676.00000000
428.88011294	1676.00000000
429.34293497	1672.00000000
429.80580604	1571.00000000
430.26872613	1634.00000000
430.73169519	1679.00000000
431.19471319	1647.00000000
431.65778008	1626.00000000
432.12089584	1649.00000000
432.58406043	1655.00000000
433.04727380	1493.00000000
433.51053593	1602.00000000
433.97384677	1677.00000000
434.43720630	1633.00000000
434.90061446	1552.00000000
435.36407123	1681.00000000
435.82757657	1715.00000000
436.29113044	1636.00000000
436.75473281	1680.00000000
437.21838363	1654.00000000
437.68208288	1642.00000000
438.14583051	1699.00000000
438.60962648	1635.00000000
439.07347077	1643.00000000
439.53736333	1685.00000000
440.00130413	1651.00000000
440.46529314	1693.00000000
440.92933030	1668.00000000
441.39341559	1593.00000000
441.85754898	1657.00000000
442.32173041	1670.00000000
442.78595986	1680.00000000
443.25023730	1645.00000000
443.71456267	1634.00000000
444.17893595	1695.00000000
444.64335711	1704.00000000
445.10782609	1599.00000000
445.57234287	1665.00000000
446.03690741	1671.00000000
446.50151967	1631.00000000
446.96617962	1664.00000000
447.43088721	1644.00000000
447.89564242	1693.00000000
448.36044520	1711.00000000
448.82529553	1687.00000000
449.29019335	1712.00000000
449.75513864	1651.00000000
450.22013135	1700.00000000
450.68517146	1678.00000000
451.15025892	1640.00000000
451.61539370	1645.00000000
452.08057576	1709.00000000
452.54580506	1711.00000000
453.01108157	1695.00000000
453.47640525	1714.00000000
453.94177607	1655.00000000
454.40719398	1688.00000000
454.87265895	1669.00000000
455.33817095	1676.00000000
455.80372993	1678.00000000
456.26933586	1682.00000000
456.73498870	1664.00000000
457.20068842	1718.00000000
457.66643498	1706.00000000
458.13222835	1562.00000000
458.59806847	1438.00000000
459.06395533	1658.00000000
459.52988888	1637.00000000
459.99586908	1718.00000000
460.46189590	1733.00000000
460.92796931	1634.00000000
461.39408926	1713.00000000
461.86025571	1666.00000000
462.32646864	1702.00000000
462.79272800	1698.00000000
463.25903377	1725.00000000
463.72538589	1725.00000000
464.19178433	1685.00000000
464.65822906	1660.00000000
465.12472005	1701.00000000
465.59125725	1699.00000000
466.05784062	1712.00000000
466.52447013	1696.00000000
466.99114575	1673.00000000
467.45786744	1705.00000000
467.92463515	1688.00000000
468.39144886	1689.00000000
468.85830852	1660.00000000
469.32521410	1695.00000000
469.79216557	1719.00000000
470.25916288	1686.00000000
470.72620600	1706.00000000
471.19329489	1666.00000000
471.66042952	1694.00000000
472.12760985	1711.00000000
472.59483583	1700.00000000
473.06210745	1693.00000000
473.52942465	1734.00000000
473.99678740	1769.00000000
474.46419567	1643.00000000
474.93164941	1712.00000000
475.39914860	1711.00000000
475.86669319	1656.00000000
476.33428315	1756.00000000
476.80191844	1714.00000000
477.26959902	1738.00000000
477.73732486	1692.00000000
478.20509592	1702.00000000
478.67291216	1714.00000000
479.14077355	1726.00000000
479.60868006	1718.00000000
480.07663163	1732.00000000
480.54462824	1685.00000000
481.01266985	1729.00000000
481.48075642	1709.00000000
481.94888792	1741.00000000
482.41706430	1695.00000000
482.88528554	1711.00000000
483.35355160	1707.00000000
483.82186243	1737.00000000
484.29021801	1755.00000000
484.75861829	1726.00000000
485.22706324	1700.00000000
485.69555282	1753.00000000
486.16408699	1719.00000000
486.63266573	1718.00000000
487.10128898	1708.00000000
487.56995672	1751.00000000
488.03866891	1753.00000000
488.50742551	1711.00000000
488.97622648	1710.00000000
489.44507179	1622.00000000
489.91396139	1702.00000000
490.38289527	1665.00000000
490.85187337	1759.00000000
491.32089566	1776.00000000
491.78996210	1787.00000000
492.25907266	1721.00000000
492.72822730	1554.00000000
493.19742598	1760.00000000
493.66666867	1757.00000000
494.13595533	1765.00000000
494.60528591	1755.00000000
495.07466040	1776.00000000
495.54407874	1746.00000000
496.01354091	1768.00000000
496.48304686	1747.00000000
496.95259656	1767.00000000
497.42218997	1786.00000000
497.89182706	1701.00000000
498.36150779	1771.00000000
498.83123211	1760.00000000
499.30100000	1754.00000000
499.77081142	1793.00000000
500.24066633	1798.00000000
500.71056469	1754.00000000
501.18050648	1758.00000000
501.65049164	1800.00000000
502.12052014	1798.00000000
502.59059195	1810.00000000
503.06070704	1777.00000000
503.53086535	1710.00000000
504.00106686	1660.00000000
504.47131154	1790.00000000
504.94159933	1782.00000000
505.41193021	1764.00000000
505.88230414	1828.00000000
506.35272109	1848.00000000
506.82318101	1857.00000000
507.29368386	1828.00000000
507.76422962	1862.00000000
508.23481825	1851.00000000
508.70544970	1816.00000000
509.17612395	1805.00000000
509.64684095	1852.00000000
510.11760067	1863.00000000
510.58840307	1868.00000000
511.05924812	1855.00000000
511.53013577	1880.00000000
512.00106600	1867.00000000
512.47203875	1891.00000000
512.94305401	1856.00000000
513.41411173	1866.00000000
513.88521187	1887.00000000
514.35635440	1874.00000000
514.82753927	1816.00000000
515.29876647	1832.00000000
515.77003593	1878.00000000
516.24134764	1811.00000000
516.71270155	1887.00000000
517.18409763	1908.00000000
517.65553584	1895.00000000
518.12701614	1877.00000000
518.59853850	1917.00000000
519.07010287	1800.00000000
519.54170923	1888.00000000
520.01335753	1821.00000000
520.48504774	1896.00000000
520.95677983	1900.00000000
521.42855375	1864.00000000
521.90036946	1879.00000000
522.37222694	1873.00000000
522.84412615	1878.00000000
523.31606704	1914.00000000
523.78804958	1903.00000000
524.26007374	1892.00000000
524.73213947	1910.00000000
525.20424675	1898.00000000
525.67639553	1896.00000000
526.14858578	1934.00000000
526.62081745	1854.00000000
527.09309052	1896.00000000
527.56540495	1927.00000000
528.03776070	1898.00000000
528.51015773	1890.00000000
528.98259601	1920.00000000
529.45507550	1877.00000000
529.92759616	1913.00000000
530.40015795	1881.00000000
530.87276085	1906.00000000
531.34540481	1916.00000000
531.81808979	1890.00000000
532.29081576	1881.00000000
532.76358269	1910.00000000
533.23639053	1901.00000000
533.70923924	1876.00000000
534.18212880	1917.00000000
534.65505917	1946.00000000
535.12803030	1929.00000000
535.60104217	1934.00000000
536.07409473	1922.00000000
536.54718794	1917.00000000
537.02032178	1926.00000000
537.49349620	1609.00000000
537.96671117	1923.00000000
538.43996665	1957.00000000
538.91326261	1927.00000000
539.38659900	1842.00000000
539.85997579	1947.00000000
540.33339294	1960.00000000
540.80685042	1869.00000000
541.28034819	1941.00000000
541.75388622	1953.00000000
542.22746446	1905.00000000
542.70108287	1933.00000000
543.17474144	1969.00000000
543.64844010	1967.00000000
544.12217884	1891.00000000
544.59595761	1937.00000000
545.06977637	1969.00000000
545.54363510	1961.00000000
546.01753374	1962.00000000
546.49147227	1949.00000000
546.96545065	1963.00000000
547.43946884	1964.00000000
547.91352680	1925.00000000
548.38762450	1914.00000000
548.86176191	1846.00000000
549.33593897	1965.00000000
549.81015567	1884.00000000
550.28441195	1930.00000000
550.75870779	1946.00000000
551.23304315	1782.00000000
551.70741799	1978.00000000
552.18183227	1968.00000000
552.65628595	1956.00000000
553.13077901	1937.00000000
553.60531140	1916.00000000
554.07988309	1953.00000000
554.55449403	1952.00000000
555.02914420	1972.00000000
555.50383356	1996.00000000
555.97856206	1985.00000000
556.45332968	1911.00000000
556.92813637	1893.00000000
557.40298210	1943.00000000
557.87786683	1941.00000000
558.35279053	1955.00000000
558.82775315	1916.00000000
559.30275467	1993.00000000
559.77779504	1977.00000000
560.25287423	1973.00000000
560.72799221	1910.00000000
561.20314892	2022.00000000
561.67834435	1957.00000000
562.15357844	1993.00000000
562.62885117	1975.00000000
563.10416249	2005.00000000
563.57951238	1978.00000000
564.05490079	1982.00000000
564.53032769	1979.00000000
565.00579303	2027.00000000
565.48129679	1962.00000000
565.95683893	2015.00000000
566.43241940	2009.00000000
566.90803818	1926.00000000
567.38369523	2005.00000000
567.85939050	1940.00000000
568.33512397	2001.00000000
568.81089559	2016.00000000
569.28670533	2019.00000000
569.76255316	2010.00000000
570.23843902	1981.00000000
570.71436290	2003.00000000
571.19032475	2023.00000000
571.66632453	2010.00000000
572.14236222	2016.00000000
572.61843776	2014.00000000
573.09455113	1939.00000000
573.57070228	1998.00000000
574.04689119	2005.00000000
574.52311781	1990.00000000
574.99938211	1983.00000000
575.47568405	2047.00000000
575.95202359	2038.00000000
576.42840070	1852.00000000
576.90481534	2044.00000000
577.38126747	1982.00000000
577.85775706	2056.00000000
578.33428407	2075.00000000
578.81084846	2074.00000000
579.28745020	2046.00000000
579.76408925	2020.00000000
580.24076557	2093.00000000
580.71747912	1943.00000000
581.19422988	2066.00000000
581.67101780	2050.00000000
582.14784284	2097.00000000
582.62470497	2059.00000000
583.10160416	2058.00000000
583.57854035	2080.00000000
584.05551353	2005.00000000
584.53252365	2094.00000000
585.00957067	2094.00000000
585.48665456	2088.00000000
585.96377529	2102.00000000
586.44093280	2128.00000000
586.91812708	2087.00000000
587.39535807	2125.00000000
587.87262575	2090.00000000
588.34993007	2063.00000000
588.82727101	2038.00000000
589.30464852	2097.00000000
589.78206256	2119.00000000
590.25951311	2135.00000000
590.73700012	2104.00000000
591.21452355	2090.00000000
591.69208338	2061.00000000
592.16967956	2138.00000000
592.64731205	2076.00000000
593.12498082	2110.00000000
593.60268584	2158.00000000
594.08042706	2095.00000000
594.55820445	2124.00000000
595.03601797	2048.00000000
595.51386759	2118.00000000
595.99175326	2150.00000000
596.46967496	2080.00000000
596.94763264	2127.00000000
597.42562627	2113.00000000
597.90365581	2074.00000000
598.38172122	2096.00000000
598.85982248	2136.00000000
599.33795953	2051.00000000
599.81613235	2024.00000000
600.29434089	2127.00000000
600.77258513	2045.00000000
601.25086501	2190.00000000
601.72918052	2145.00000000
602.20753161	2186.00000000
602.68591823	2173.00000000
603.16434037	2179.00000000
603.64279797	2102.00000000
604.12129101	2133.00000000
604.59981945	2162.00000000
605.07838324	2176.00000000
605.55698236	2161.00000000
606.03561676	2140.00000000
606.51428641	2192.00000000
606.99299127	2174.00000000
607.47173131	2160.00000000
607.95050648	2177.00000000
608.42931676	2222.00000000
608.90816210	2212.00000000
609.38704248	2191.00000000
609.86595784	2195.00000000
610.34490816	2149.00000000
610.82389339	2198.00000000
611.30291351	2153.00000000
611.78196847	2195.00000000
612.26105823	2143.00000000
612.74018277	2184.00000000
613.21934204	2182.00000000
613.69853601	2200.00000000
614.17776464	2115.00000000
614.65702789	2196.00000000
615.13632573	2159.00000000
615.61565812	2182.00000000
616.09502502	2238.00000000
616.57442640	2165.00000000
617.05386221	2021.00000000
617.53333243	2124.00000000
618.01283702	2116.00000000
618.49237593	2199.00000000
618.97194914	2227.00000000
619.45155660	2140.00000000
619.93119828	2245.00000000
620.41087415	2213.00000000
620.89058415	2208.00000000
621.37032827	2181.00000000
621.85010646	2206.00000000
622.32991868	2171.00000000
622.80976490	2196.00000000
623.28964508	2213.00000000
623.76955919	2202.00000000
624.24950718	2221.00000000
624.72948902	2249.00000000
625.20950468	2239.00000000
625.68955412	2180.00000000
626.16963729	2151.00000000
626.64975417	2229.00000000
627.12990471	2240.00000000
627.61008889	2168.00000000
628.09030666	2270.00000000
628.57055798	2184.00000000
629.05084283	2263.00000000
629.53116115	2245.00000000
630.01151293	2228.00000000
630.49189811	2209.00000000
630.97231666	2212.00000000
631.45276855	2246.00000000
631.93325374	2228.00000000
632.41377219	2214.00000000
632.89432387	2175.00000000
633.37490873	2239.00000000
633.85552675	2209.00000000
634.33617788	2253.00000000
634.81686209	2211.00000000
635.29757934	2248.00000000
635.77832959	2234.00000000
636.25911281	2232.00000000
636.73992897	2237.00000000
637.22077801	2093.00000000
637.70165992	2260.00000000
638.18257464	2228.00000000
638.66352215	2212.00000000
639.14450240	2234.00000000
639.62551537	2201.00000000
640.10656101	2252.00000000
640.58763928	2205.00000000
641.06875016	2211.00000000
641.54989359	2249.00000000
642.03106956	2197.00000000
642.51227801	2240.00000000
642.99351892	2256.00000000
643.47479224	2034.00000000
643.95609794	2231.00000000
644.43743598	2174.00000000
644.91880633	2229.00000000
645.40020894	2209.00000000
645.88164379	2186.00000000
646.36311083	2265.00000000
646.84461003	2240.00000000
647.32614135	2252.00000000
647.80770476	2253.00000000
648.28930022	2264.00000000
648.77092768	2230.00000000
649.25258712	2188.00000000
649.73427850	2222.00000000
650.21600177	2206.00000000
650.69775691	2254.00000000
651.17954388	2233.00000000
651.66136264	2220.00000000
652.14321315	2266.00000000
652.62509538	2251.00000000
653.10700929	2202.00000000
653.58895484	2223.00000000
654.07093200	2269.00000000
654.55294072	2270.00000000
655.03498098	2264.00000000
655.51705274	2208.00000000
655.99915595	2234.00000000
656.48129059	2234.00000000
656.96345661	2200.00000000
657.44565398	2227.00000000
657.92788266	2219.00000000
658.41014262	2228.00000000
658.89243382	2244.00000000
659.37475621	2209.00000000
659.85710978	2230.00000000
660.33949447	2238.00000000
660.82191025	2202.00000000
661.30435708	2234.00000000
661.78683493	2221.00000000
662.26934377	2207.00000000
662.75188354	2241.00000000
663.23445423	2121.00000000
663.71705578	2189.00000000
664.19968817	2238.00000000
664.68235136	2217.00000000
665.16504530	2208.00000000
665.64776997	2179.00000000
666.13052532	2206.00000000
666.61331133	2206.00000000
667.09612794	2177.00000000
667.57897514	2209.00000000
668.06185287	2177.00000000
668.54476110	2162.00000000
669.02769980	2156.00000000
669.51066893	2195.00000000
669.99366845	2221.00000000
670.47669833	2215.00000000
670.95975852	2241.00000000
671.44284900	2193.00000000
671.92596972	2156.00000000
672.40912065	2224.00000000
672.89230175	2245.00000000
673.37551298	2205.00000000
673.85875431	2253.00000000
674.34202570	2219.00000000
674.82532712	2200.00000000
675.30865852	2224.00000000
675.79201988	2213.00000000
676.27541115	2231.00000000
676.75883229	2221.00000000
677.24228328	2247.00000000
677.72576406	2238.00000000
678.20927462	2271.00000000
678.69281490	2132.00000000
679.17638488	2201.00000000
679.65998451	2244.00000000
680.14361377	2239.00000000
680.62727260	2263.00000000
681.11096098	2230.00000000
681.59467887	2225.00000000
682.07842623	2214.00000000
682.56220303	2264.00000000
683.04600923	2156.00000000
683.52984478	2209.00000000
684.01370967	2223.00000000
684.49760384	2274.00000000
684.98152726	2274.00000000
685.46547989	2214.00000000
685.94946171	2259.00000000
686.43347266	2264.00000000
686.91751272	2295.00000000
687.40158185	2237.00000000
687.88568001	2277.00000000
688.36980716	2254.00000000
688.85396327	2251.00000000
689.33814829	2274.00000000
689.82236221	2277.00000000
690.30660496	2275.00000000
690.79087653	2271.00000000
691.27517687	2231.00000000
691.75950595	2282.00000000
692.24386373	2234.00000000
692.72825017	2302.00000000
693.21266523	2236.00000000
693.69710889	2227.00000000
694.18158109	2225.00000000
694.66608181	2247.00000000
695.15061101	2163.00000000
695.63516866	2224.00000000
696.11975470	2233.00000000
696.60436912	2262.00000000
697.08901187	2203.00000000
697.57368291	2241.00000000
698.05838221	2197.00000000
698.54310973	2230.00000000
699.02786544	2182.00000000
699.51264929	2254.00000000
699.99746125	2263.00000000
700.48230129	2269.00000000
700.96716936	2227.00000000
701.45206544	2249.00000000
701.93698948	2217.00000000
702.42194144	2239.00000000
702.90692130	2251.00000000
703.39192900	2175.00000000
703.87696453	2292.00000000
704.36202783	2281.00000000
704.84711888	2271.00000000
705.33223763	2258.00000000
705.81738405	2251.00000000
706.30255811	2289.00000000
706.78775976	2243.00000000
707.27298897	2241.00000000
707.75824570	2251.00000000
708.24352991	2197.00000000
708.72884158	2245.00000000
709.21418065	2260.00000000
709.69954710	2163.00000000
710.18494089	2269.00000000
710.67036198	2236.00000000
711.15581034	2251.00000000
711.64128592	2267.00000000
712.12678869	2276.00000000
712.61231862	2260.00000000
713.09787566	2204.00000000
713.58345979	2274.00000000
714.06907095	2269.00000000
714.55470913	2229.00000000
715.04037427	2261.00000000
715.52606635	2252.00000000
716.01178533	2274.00000000
716.49753116	2276.00000000
716.98330382	2279.00000000
717.46910326	2140.00000000
717.95492946	2211.00000000
718.44078236	2246.00000000
718.92666194	2262.00000000
719.41256816	2255.00000000
719.89850098	2236.00000000
720.38446037	2189.00000000
720.87044629	2236.00000000
721.35645870	2183.00000000
721.84249756	2251.00000000
722.32856284	2252.00000000
722.81465450	2245.00000000
723.30077251	2193.00000000
723.78691682	2218.00000000
724.27308741	2205.00000000
724.75928423	2215.00000000
725.24550724	2169.00000000
725.73175642	2193.00000000
726.21803172	2242.00000000
726.70433311	2230.00000000
727.19066055	2135.00000000
727.67701400	2195.00000000
728.16339343	2242.00000000
728.64979880	2222.00000000
729.13623007	2189.00000000
729.62268721	2219.00000000
730.10917018	2136.00000000
730.59567893	2184.00000000
731.08221345	2196.00000000
731.56877369	2189.00000000
732.05535960	2232.00000000
732.54197116	2228.00000000
733.02860834	2205.00000000
733.51527108	2180.00000000
734.00195936	2159.00000000
734.48867313	2199.00000000
734.97541237	2185.00000000
735.46217703	2236.00000000
735.94896708	2174.00000000
736.43578248	2247.00000000
736.92262320	2240.00000000
737.40948919	2220.00000000
737.89638043	2235.00000000
738.38329686	2223.00000000
738.87023847	2197.00000000
739.35720520	2153.00000000
739.84419703	2217.00000000
740.33121392	2234.00000000
740.81825582	2183.00000000
741.30532271	2085.00000000
741.79241455	2166.00000000
742.27953129	2202.00000000
742.76667291	2249.00000000
743.25383936	2228.00000000
743.74103061	2211.00000000
744.22824663	2239.00000000
744.71548737	2199.00000000
745.20275280	2111.00000000
745.69004288	2223.00000000
746.17735758	2214.00000000
746.66469685	2228.00000000
747.15206067	2178.00000000
747.63944899	2218.00000000
748.12686178	2192.00000000
748.61429900	2066.00000000
749.10176061	2209.00000000
749.58924659	2214.00000000
750.07675688	2210.00000000
750.56429146	2213.00000000
751.05185028	2166.00000000
751.53943332	2176.00000000
752.02704053	2080.00000000
752.51467187	2096.00000000
753.00232732	2106.00000000
753.49000683	2177.00000000
753.97771036	2203.00000000
754.46543789	2144.00000000
754.95318936	2172.00000000
755.44096476	2193.00000000
755.92876403	2164.00000000
756.41658715	2154.00000000
756.90443407	2199.00000000
757.39230476	2140.00000000
757.88019918	2120.00000000
758.36811730	2188.00000000
758.85605908	2169.00000000
759.34402448	2150.00000000
759.83201346	2095.00000000
760.32002599	2108.00000000
760.80806203	1999.00000000
761.29612155	2085.00000000
761.78420451	2140.00000000
762.27231086	2143.00000000
762.76044058	2169.00000000
763.24859363	2134.00000000
763.73676997	2098.00000000
764.22496956	2109.00000000
764.71319237	2131.00000000
765.20143836	2139.00000000
765.68970749	2140.00000000
766.17799973	2010.00000000
766.66631504	2071.00000000
767.15465338	2104.00000000
767.64301472	2075.00000000
768.13139902	2088.00000000
768.61980624	2111.00000000
769.10823635	2123.00000000
769.59668930	2092.00000000
770.08516507	2115.00000000
770.57366361	2071.00000000
771.06218489	2112.00000000
771.55072888	2071.00000000
772.03929553	2082.00000000
772.52788480	2105.00000000
773.01649667	2095.00000000
773.50513109	2027.00000000
773.99378804	2114.00000000
774.48246746	2096.00000000
774.97116932	2064.00000000
775.45989360	2083.00000000
775.94864024	2102.00000000
776.43740922	2051.00000000
776.92620050	2086.00000000
777.41501403	2019.00000000
777.90384979	2101.00000000
778.39270774	2069.00000000
778.88158784	2076.00000000
779.37049004	2081.00000000
779.85941433	1968.00000000
780.34836066	2062.00000000
780.83732898	2088.00000000
781.32631928	2089.00000000
781.81533150	2024.00000000
782.30436562	2014.00000000
782.79342159	2082.00000000
783.28249938	2066.00000000
783.77159895	2038.00000000
784.26072027	2035.00000000
784.74986329	2068.00000000
785.23902799	2046.00000000
785.72821432	1937.00000000
786.21742225	2070.00000000
786.70665174	1951.00000000
787.19590276	2043.00000000
787.68517526	2043.00000000
788.17446922	1852.00000000
788.66378459	2004.00000000
789.15312133	1980.00000000
789.64247942	2042.00000000
790.13185881	2050.00000000
790.62125947	2069.00000000
791.11068135	2022.00000000
791.60012443	2039.00000000
792.08958867	1970.00000000
792.57907402	2038.00000000
793.06858046	1972.00000000
793.55810795	2021.00000000
794.04765644	1994.00000000
794.53722591	2002.00000000
795.02681631	2015.00000000
795.51642762	1987.00000000
796.00605978	2010.00000000
796.49571277	2016.00000000
796.98538655	2011.00000000
797.47508108	2049.00000000
797.96479632	1986.00000000
798.45453224	2012.00000000
798.94428881	1987.00000000
799.43406597	1985.00000000
799.92386371	1979.00000000
800.41368198	1881.00000000
800.90352074	2006.00000000
801.39337996	1968.00000000
801.88325960	1889.00000000
802.37315962	1969.00000000
802.86307999	1972.00000000
803.35302067	1995.00000000
803.84298163	1969.00000000
804.33296282	1956.00000000
804.82296421	1982.00000000
805.31298576	1961.00000000
805.80302744	1960.00000000
806.29308921	1754.00000000
806.78317103	1960.00000000
807.27327287	1955.00000000
807.76339468	1933.00000000
808.25353644	1987.00000000
808.74369811	1968.00000000
809.23387964	1912.00000000
809.72408100	1939.00000000
810.21430216	1924.00000000
810.70454308	1955.00000000
811.19480372	1924.00000000
811.68508405	1938.00000000
812.17538402	1964.00000000
812.66570360	1946.00000000
813.15604276	1967.00000000
813.64640146	1926.00000000
814.13677965	1947.00000000
814.62717731	1963.00000000
815.11759440	1919.00000000
815.60803088	1968.00000000
816.09848671	1959.00000000
816.58896185	1929.00000000
817.07945628	1944.00000000
817.56996995	1857.00000000
818.06050283	1957.00000000
818.55105488	1937.00000000
819.04162606	1924.00000000
819.53221633	1969.00000000
820.02282567	1984.00000000
820.51345402	1964.00000000
821.00410137	1933.00000000
821.49476766	1862.00000000
821.98545286	1923.00000000
822.47615694	1938.00000000
822.96687986	1950.00000000

