Saved at time: 4558814 milliseconds
Integration time: 1500000
Scans to average: 0
Boxcar smoothing: 0
Wavelengths	Intensities
337.35134888	1668.00000000
337.80362194	1677.00000000
338.25595141	1693.00000000
338.70833725	1675.00000000
339.16077942	1658.00000000
339.61327788	1637.00000000
340.06583261	1667.00000000
340.51844356	1602.00000000
340.97111069	1614.00000000
341.42383397	1591.00000000
341.87661336	1572.00000000
342.32944883	1609.00000000
342.78234033	1623.00000000
343.23528784	1633.00000000
343.68829131	1667.00000000
344.14135070	1640.00000000
344.59446599	1669.00000000
345.04763714	1624.00000000
345.50086410	1595.00000000
345.95414684	1677.00000000
346.40748532	1635.00000000
346.86087951	1638.00000000
347.31432937	1655.00000000
347.76783486	1683.00000000
348.22139595	1642.00000000
348.67501260	1641.00000000
349.12868478	1666.00000000
349.58241244	1634.00000000
350.03619554	1668.00000000
350.49003406	1651.00000000
350.94392796	1641.00000000
351.39787720	1615.00000000
351.85188173	1640.00000000
352.30594153	1601.00000000
352.76005657	1626.00000000
353.21422679	1608.00000000
353.66845217	1655.00000000
354.12273266	1604.00000000
354.57706824	1618.00000000
355.03145886	1633.00000000
355.48590449	1655.00000000
355.94040509	1653.00000000
356.39496062	1636.00000000
356.84957105	1637.00000000
357.30423634	1661.00000000
357.75895646	1668.00000000
358.21373136	1626.00000000
358.66856102	1598.00000000
359.12344538	1664.00000000
359.57838442	1673.00000000
360.03337811	1580.00000000
360.48842639	1657.00000000
360.94352924	1593.00000000
361.39868662	1655.00000000
361.85389850	1658.00000000
362.30916483	1657.00000000
362.76448558	1675.00000000
363.21986071	1605.00000000
363.67529018	1627.00000000
364.13077397	1670.00000000
364.58631202	1664.00000000
365.04190431	1613.00000000
365.49755080	1596.00000000
365.95325145	1685.00000000
366.40900623	1618.00000000
366.86481509	1667.00000000
367.32067801	1686.00000000
367.77659494	1666.00000000
368.23256584	1681.00000000
368.68859069	1662.00000000
369.14466944	1632.00000000
369.60080206	1672.00000000
370.05698851	1636.00000000
370.51322875	1585.00000000
370.96952275	1624.00000000
371.42587047	1690.00000000
371.88227187	1695.00000000
372.33872691	1697.00000000
372.79523557	1620.00000000
373.25179780	1616.00000000
373.70841357	1663.00000000
374.16508283	1666.00000000
374.62180556	1671.00000000
375.07858171	1690.00000000
375.53541125	1693.00000000
375.99229415	1692.00000000
376.44923035	1590.00000000
376.90621984	1638.00000000
377.36326257	1699.00000000
377.82035850	1642.00000000
378.27750760	1656.00000000
378.73470984	1370.00000000
379.19196516	1647.00000000
379.64927355	1692.00000000
380.10663495	1556.00000000
380.56404934	1646.00000000
381.02151668	1674.00000000
381.47903693	1712.00000000
381.93661005	1665.00000000
382.39423600	1643.00000000
382.85191476	1705.00000000
383.30964628	1661.00000000
383.76743053	1674.00000000
384.22526746	1681.00000000
384.68315705	1650.00000000
385.14109926	1712.00000000
385.59909404	1687.00000000
386.05714137	1694.00000000
386.51524120	1702.00000000
386.97339351	1679.00000000
387.43159824	1683.00000000
387.88985537	1698.00000000
388.34816486	1716.00000000
388.80652667	1698.00000000
389.26494076	1725.00000000
389.72340710	1718.00000000
390.18192566	1717.00000000
390.64049638	1703.00000000
391.09911925	1728.00000000
391.55779422	1665.00000000
392.01652125	1741.00000000
392.47530030	1716.00000000
392.93413135	1596.00000000
393.39301436	1753.00000000
393.85194927	1732.00000000
394.31093607	1665.00000000
394.76997472	1723.00000000
395.22906517	1699.00000000
395.68820739	1663.00000000
396.14740134	1757.00000000
396.60664699	1779.00000000
397.06594429	1718.00000000
397.52529322	1753.00000000
397.98469374	1751.00000000
398.44414581	1734.00000000
398.90364938	1688.00000000
399.36320444	1761.00000000
399.82281093	1756.00000000
400.28246882	1740.00000000
400.74217808	1792.00000000
401.20193867	1739.00000000
401.66175054	1765.00000000
402.12161368	1794.00000000
402.58152803	1770.00000000
403.04149356	1757.00000000
403.50151023	1809.00000000
403.96157802	1790.00000000
404.42169687	1781.00000000
404.88186676	1757.00000000
405.34208764	1750.00000000
405.80235949	1785.00000000
406.26268226	1740.00000000
406.72305591	1756.00000000
407.18348042	1807.00000000
407.64395574	1816.00000000
408.10448183	1788.00000000
408.56505866	1722.00000000
409.02568620	1745.00000000
409.48636440	1737.00000000
409.94709324	1773.00000000
410.40787266	1771.00000000
410.86870264	1716.00000000
411.32958314	1804.00000000
411.79051412	1778.00000000
412.25149554	1673.00000000
412.71252738	1751.00000000
413.17360958	1802.00000000
413.63474212	1818.00000000
414.09592496	1830.00000000
414.55715806	1855.00000000
415.01844138	1780.00000000
415.47977490	1781.00000000
415.94115856	1825.00000000
416.40259233	1833.00000000
416.86407619	1746.00000000
417.32561008	1755.00000000
417.78719398	1827.00000000
418.24882784	1778.00000000
418.71051164	1851.00000000
419.17224533	1768.00000000
419.63402887	1837.00000000
420.09586223	1842.00000000
420.55774538	1799.00000000
421.01967827	1795.00000000
421.48166087	1833.00000000
421.94369315	1783.00000000
422.40577506	1855.00000000
422.86790657	1816.00000000
423.33008764	1715.00000000
423.79231823	1872.00000000
424.25459832	1888.00000000
424.71692786	1829.00000000
425.17930681	1856.00000000
425.64173514	1841.00000000
426.10421281	1872.00000000
426.56673978	1811.00000000
427.02931602	1751.00000000
427.49194150	1851.00000000
427.95461617	1889.00000000
428.41733999	1891.00000000
428.88011294	1894.00000000
429.34293497	1894.00000000
429.80580604	1785.00000000
430.26872613	1853.00000000
430.73169519	1902.00000000
431.19471319	1875.00000000
431.65778008	1860.00000000
432.12089584	1868.00000000
432.58406043	1893.00000000
433.04727380	1743.00000000
433.51053593	1856.00000000
433.97384677	1930.00000000
434.43720630	1900.00000000
434.90061446	1824.00000000
435.36407123	1947.00000000
435.82757657	2004.00000000
436.29113044	1914.00000000
436.75473281	1953.00000000
437.21838363	1945.00000000
437.68208288	1928.00000000
438.14583051	1985.00000000
438.60962648	1912.00000000
439.07347077	1925.00000000
439.53736333	1976.00000000
440.00130413	1949.00000000
440.46529314	1992.00000000
440.92933030	1970.00000000
441.39341559	1897.00000000
441.85754898	1962.00000000
442.32173041	1980.00000000
442.78595986	1994.00000000
443.25023730	1964.00000000
443.71456267	1966.00000000
444.17893595	2032.00000000
444.64335711	2048.00000000
445.10782609	1947.00000000
445.57234287	2029.00000000
446.03690741	2059.00000000
446.50151967	2024.00000000
446.96617962	2061.00000000
447.43088721	2052.00000000
447.89564242	2113.00000000
448.36044520	2147.00000000
448.82529553	2128.00000000
449.29019335	2159.00000000
449.75513864	2091.00000000
450.22013135	2151.00000000
450.68517146	2136.00000000
451.15025892	2099.00000000
451.61539370	2092.00000000
452.08057576	2158.00000000
452.54580506	2171.00000000
453.01108157	2161.00000000
453.47640525	2173.00000000
453.94177607	2128.00000000
454.40719398	2143.00000000
454.87265895	2120.00000000
455.33817095	2154.00000000
455.80372993	2155.00000000
456.26933586	2172.00000000
456.73498870	2166.00000000
457.20068842	2207.00000000
457.66643498	2209.00000000
458.13222835	2075.00000000
458.59806847	1952.00000000
459.06395533	2198.00000000
459.52988888	2161.00000000
459.99586908	2242.00000000
460.46189590	2267.00000000
460.92796931	2157.00000000
461.39408926	2253.00000000
461.86025571	2197.00000000
462.32646864	2242.00000000
462.79272800	2227.00000000
463.25903377	2239.00000000
463.72538589	2250.00000000
464.19178433	2226.00000000
464.65822906	2187.00000000
465.12472005	2227.00000000
465.59125725	2212.00000000
466.05784062	2233.00000000
466.52447013	2230.00000000
466.99114575	2189.00000000
467.45786744	2225.00000000
467.92463515	2227.00000000
468.39144886	2219.00000000
468.85830852	2187.00000000
469.32521410	2229.00000000
469.79216557	2264.00000000
470.25916288	2240.00000000
470.72620600	2271.00000000
471.19329489	2247.00000000
471.66042952	2268.00000000
472.12760985	2317.00000000
472.59483583	2318.00000000
473.06210745	2327.00000000
473.52942465	2378.00000000
473.99678740	2425.00000000
474.46419567	2309.00000000
474.93164941	2409.00000000
475.39914860	2416.00000000
475.86669319	2357.00000000
476.33428315	2470.00000000
476.80191844	2432.00000000
477.26959902	2449.00000000
477.73732486	2425.00000000
478.20509592	2424.00000000
478.67291216	2460.00000000
479.14077355	2464.00000000
479.60868006	2440.00000000
480.07663163	2451.00000000
480.54462824	2431.00000000
481.01266985	2460.00000000
481.48075642	2443.00000000
481.94888792	2477.00000000
482.41706430	2428.00000000
482.88528554	2454.00000000
483.35355160	2455.00000000
483.82186243	2495.00000000
484.29021801	2511.00000000
484.75861829	2485.00000000
485.22706324	2471.00000000
485.69555282	2528.00000000
486.16408699	2522.00000000
486.63266573	2523.00000000
487.10128898	2535.00000000
487.56995672	2602.00000000
488.03866891	2611.00000000
488.50742551	2584.00000000
488.97622648	2594.00000000
489.44507179	2549.00000000
489.91396139	2640.00000000
490.38289527	2612.00000000
490.85187337	2736.00000000
491.32089566	2739.00000000
491.78996210	2780.00000000
492.25907266	2729.00000000
492.72822730	2574.00000000
493.19742598	2781.00000000
493.66666867	2790.00000000
494.13595533	2771.00000000
494.60528591	2780.00000000
495.07466040	2802.00000000
495.54407874	2773.00000000
496.01354091	2799.00000000
496.48304686	2768.00000000
496.95259656	2806.00000000
497.42218997	2819.00000000
497.89182706	2715.00000000
498.36150779	2813.00000000
498.83123211	2797.00000000
499.30100000	2807.00000000
499.77081142	2850.00000000
500.24066633	2883.00000000
500.71056469	2829.00000000
501.18050648	2851.00000000
501.65049164	2889.00000000
502.12052014	2914.00000000
502.59059195	2956.00000000
503.06070704	2929.00000000
503.53086535	2876.00000000
504.00106686	2841.00000000
504.47131154	3003.00000000
504.94159933	3013.00000000
505.41193021	3059.00000000
505.88230414	3107.00000000
506.35272109	3180.00000000
506.82318101	3198.00000000
507.29368386	3193.00000000
507.76422962	3251.00000000
508.23481825	3271.00000000
508.70544970	3246.00000000
509.17612395	3261.00000000
509.64684095	3297.00000000
510.11760067	3330.00000000
510.58840307	3364.00000000
511.05924812	3350.00000000
511.53013577	3370.00000000
512.00106600	3389.00000000
512.47203875	3405.00000000
512.94305401	3369.00000000
513.41411173	3406.00000000
513.88521187	3417.00000000
514.35635440	3440.00000000
514.82753927	3366.00000000
515.29876647	3394.00000000
515.77003593	3464.00000000
516.24134764	3409.00000000
516.71270155	3502.00000000
517.18409763	3542.00000000
517.65553584	3548.00000000
518.12701614	3562.00000000
518.59853850	3605.00000000
519.07010287	3505.00000000
519.54170923	3620.00000000
520.01335753	3536.00000000
520.48504774	3654.00000000
520.95677983	3655.00000000
521.42855375	3643.00000000
521.90036946	3674.00000000
522.37222694	3658.00000000
522.84412615	3664.00000000
523.31606704	3739.00000000
523.78804958	3712.00000000
524.26007374	3685.00000000
524.73213947	3766.00000000
525.20424675	3699.00000000
525.67639553	3722.00000000
526.14858578	3777.00000000
526.62081745	3666.00000000
527.09309052	3725.00000000
527.56540495	3748.00000000
528.03776070	3721.00000000
528.51015773	3719.00000000
528.98259601	3729.00000000
529.45507550	3714.00000000
529.92759616	3720.00000000
530.40015795	3702.00000000
530.87276085	3716.00000000
531.34540481	3739.00000000
531.81808979	3722.00000000
532.29081576	3697.00000000
532.76358269	3729.00000000
533.23639053	3785.00000000
533.70923924	3726.00000000
534.18212880	3799.00000000
534.65505917	3819.00000000
535.12803030	3815.00000000
535.60104217	3844.00000000
536.07409473	3816.00000000
536.54718794	3850.00000000
537.02032178	3881.00000000
537.49349620	3567.00000000
537.96671117	3851.00000000
538.43996665	3957.00000000
538.91326261	3960.00000000
539.38659900	3849.00000000
539.85997579	3941.00000000
540.33339294	3983.00000000
540.80685042	3877.00000000
541.28034819	3969.00000000
541.75388622	3990.00000000
542.22746446	3753.00000000
542.70108287	3709.00000000
543.17474144	3929.00000000
543.64844010	3999.00000000
544.12217884	3900.00000000
544.59595761	3963.00000000
545.06977637	4006.00000000
545.54363510	3988.00000000
546.01753374	3984.00000000
546.49147227	3977.00000000
546.96545065	3972.00000000
547.43946884	3964.00000000
547.91352680	3938.00000000
548.38762450	3904.00000000
548.86176191	3824.00000000
549.33593897	3968.00000000
549.81015567	3872.00000000
550.28441195	3932.00000000
550.75870779	3939.00000000
551.23304315	3778.00000000
551.70741799	3985.00000000
552.18183227	3995.00000000
552.65628595	3984.00000000
553.13077901	3961.00000000
553.60531140	3946.00000000
554.07988309	4010.00000000
554.55449403	4016.00000000
555.02914420	4052.00000000
555.50383356	4074.00000000
555.97856206	4098.00000000
556.45332968	3985.00000000
556.92813637	4026.00000000
557.40298210	4076.00000000
557.87786683	4101.00000000
558.35279053	4108.00000000
558.82775315	4094.00000000
559.30275467	4153.00000000
559.77779504	4153.00000000
560.25287423	4150.00000000
560.72799221	4109.00000000
561.20314892	4206.00000000
561.67834435	4135.00000000
562.15357844	4188.00000000
562.62885117	4192.00000000
563.10416249	4173.00000000
563.57951238	4177.00000000
564.05490079	4195.00000000
564.53032769	4176.00000000
565.00579303	4240.00000000
565.48129679	4160.00000000
565.95683893	4210.00000000
566.43241940	4196.00000000
566.90803818	4092.00000000
567.38369523	4176.00000000
567.85939050	4105.00000000
568.33512397	4147.00000000
568.81089559	4214.00000000
569.28670533	4173.00000000
569.76255316	4183.00000000
570.23843902	4152.00000000
570.71436290	4176.00000000
571.19032475	4224.00000000
571.66632453	4195.00000000
572.14236222	4197.00000000
572.61843776	4232.00000000
573.09455113	4149.00000000
573.57070228	4222.00000000
574.04689119	4249.00000000
574.52311781	4230.00000000
574.99938211	4262.00000000
575.47568405	4373.00000000
575.95202359	4355.00000000
576.42840070	4172.00000000
576.90481534	4424.00000000
577.38126747	4438.00000000
577.85775706	4484.00000000
578.33428407	4535.00000000
578.81084846	4552.00000000
579.28745020	4501.00000000
579.76408925	4531.00000000
580.24076557	4640.00000000
580.71747912	4467.00000000
581.19422988	4583.00000000
581.67101780	4615.00000000
582.14784284	4707.00000000
582.62470497	4649.00000000
583.10160416	4628.00000000
583.57854035	4681.00000000
584.05551353	4645.00000000
584.53252365	4749.00000000
585.00957067	4754.00000000
585.48665456	4787.00000000
585.96377529	4749.00000000
586.44093280	4802.00000000
586.91812708	4782.00000000
587.39535807	4754.00000000
587.87262575	4772.00000000
588.34993007	4759.00000000
588.82727101	4753.00000000
589.30464852	4814.00000000
589.78206256	4794.00000000
590.25951311	4833.00000000
590.73700012	4806.00000000
591.21452355	4784.00000000
591.69208338	4776.00000000
592.16967956	4864.00000000
592.64731205	4828.00000000
593.12498082	4861.00000000
593.60268584	4935.00000000
594.08042706	4878.00000000
594.55820445	4896.00000000
595.03601797	4868.00000000
595.51386759	4931.00000000
595.99175326	4939.00000000
596.46967496	4951.00000000
596.94763264	5010.00000000
597.42562627	4978.00000000
597.90365581	4950.00000000
598.38172122	4989.00000000
598.85982248	5059.00000000
599.33795953	4995.00000000
599.81613235	4994.00000000
600.29434089	5116.00000000
600.77258513	5044.00000000
601.25086501	5181.00000000
601.72918052	5141.00000000
602.20753161	5217.00000000
602.68591823	5197.00000000
603.16434037	5224.00000000
603.64279797	5135.00000000
604.12129101	5206.00000000
604.59981945	5265.00000000
605.07838324	5222.00000000
605.55698236	5229.00000000
606.03561676	5253.00000000
606.51428641	5281.00000000
606.99299127	5269.00000000
607.47173131	5284.00000000
607.95050648	5261.00000000
608.42931676	5329.00000000
608.90816210	5254.00000000
609.38704248	5252.00000000
609.86595784	5227.00000000
610.34490816	5244.00000000
610.82389339	5249.00000000
611.30291351	5231.00000000
611.78196847	5234.00000000
612.26105823	5195.00000000
612.74018277	5240.00000000
613.21934204	5272.00000000
613.69853601	5251.00000000
614.17776464	5172.00000000
614.65702789	5255.00000000
615.13632573	5224.00000000
615.61565812	5253.00000000
616.09502502	5249.00000000
616.57442640	5208.00000000
617.05386221	5101.00000000
617.53333243	5203.00000000
618.01283702	5181.00000000
618.49237593	5296.00000000
618.97194914	5314.00000000
619.45155660	5247.00000000
619.93119828	5359.00000000
620.41087415	5354.00000000
620.89058415	5352.00000000
621.37032827	5313.00000000
621.85010646	5387.00000000
622.32991868	5346.00000000
622.80976490	5384.00000000
623.28964508	5406.00000000
623.76955919	5412.00000000
624.24950718	5457.00000000
624.72948902	5503.00000000
625.20950468	5529.00000000
625.68955412	5418.00000000
626.16963729	5457.00000000
626.64975417	5538.00000000
627.12990471	5569.00000000
627.61008889	5459.00000000
628.09030666	5589.00000000
628.57055798	5479.00000000
629.05084283	5588.00000000
629.53116115	5561.00000000
630.01151293	5510.00000000
630.49189811	5557.00000000
630.97231666	5523.00000000
631.45276855	5614.00000000
631.93325374	5498.00000000
632.41377219	5546.00000000
632.89432387	5493.00000000
633.37490873	5545.00000000
633.85552675	5495.00000000
634.33617788	5551.00000000
634.81686209	5499.00000000
635.29757934	5508.00000000
635.77832959	5517.00000000
636.25911281	5509.00000000
636.73992897	5512.00000000
637.22077801	5345.00000000
637.70165992	5459.00000000
638.18257464	5429.00000000
638.66352215	5426.00000000
639.14450240	5425.00000000
639.62551537	5390.00000000
640.10656101	5467.00000000
640.58763928	5395.00000000
641.06875016	5401.00000000
641.54989359	5445.00000000
642.03106956	5316.00000000
642.51227801	5429.00000000
642.99351892	5458.00000000
643.47479224	5223.00000000
643.95609794	5433.00000000
644.43743598	5367.00000000
644.91880633	5413.00000000
645.40020894	5385.00000000
645.88164379	5368.00000000
646.36311083	5507.00000000
646.84461003	5441.00000000
647.32614135	5476.00000000
647.80770476	5452.00000000
648.28930022	5485.00000000
648.77092768	5460.00000000
649.25258712	5464.00000000
649.73427850	5509.00000000
650.21600177	5476.00000000
650.69775691	5464.00000000
651.17954388	5470.00000000
651.66136264	5483.00000000
652.14321315	5539.00000000
652.62509538	5522.00000000
653.10700929	5486.00000000
653.58895484	5478.00000000
654.07093200	5529.00000000
654.55294072	5543.00000000
655.03498098	5508.00000000
655.51705274	5438.00000000
655.99915595	5473.00000000
656.48129059	5431.00000000
656.96345661	5393.00000000
657.44565398	5460.00000000
657.92788266	5433.00000000
658.41014262	5446.00000000
658.89243382	5503.00000000
659.37475621	5419.00000000
659.85710978	5437.00000000
660.33949447	5441.00000000
660.82191025	5375.00000000
661.30435708	5382.00000000
661.78683493	5376.00000000
662.26934377	5324.00000000
662.75188354	5342.00000000
663.23445423	5223.00000000
663.71705578	5320.00000000
664.19968817	5382.00000000
664.68235136	5315.00000000
665.16504530	5260.00000000
665.64776997	5243.00000000
666.13052532	5284.00000000
666.61331133	5277.00000000
667.09612794	5254.00000000
667.57897514	5188.00000000
668.06185287	5083.00000000
668.54476110	5164.00000000
669.02769980	5219.00000000
669.51066893	5239.00000000
669.99366845	5264.00000000
670.47669833	5284.00000000
670.95975852	5282.00000000
671.44284900	5214.00000000
671.92596972	5229.00000000
672.40912065	5270.00000000
672.89230175	5277.00000000
673.37551298	5248.00000000
673.85875431	5309.00000000
674.34202570	5323.00000000
674.82532712	5254.00000000
675.30865852	5347.00000000
675.79201988	5303.00000000
676.27541115	5332.00000000
676.75883229	5291.00000000
677.24228328	5317.00000000
677.72576406	5347.00000000
678.20927462	5409.00000000
678.69281490	5309.00000000
679.17638488	5337.00000000
679.65998451	5390.00000000
680.14361377	5390.00000000
680.62727260	5441.00000000
681.11096098	5425.00000000
681.59467887	5431.00000000
682.07842623	5355.00000000
682.56220303	5450.00000000
683.04600923	5355.00000000
683.52984478	5409.00000000
684.01370967	5441.00000000
684.49760384	5403.00000000
684.98152726	5486.00000000
685.46547989	5438.00000000
685.94946171	5446.00000000
686.43347266	5528.00000000
686.91751272	5529.00000000
687.40158185	5410.00000000
687.88568001	5511.00000000
688.36980716	5449.00000000
688.85396327	5467.00000000
689.33814829	5485.00000000
689.82236221	5498.00000000
690.30660496	5486.00000000
690.79087653	5505.00000000
691.27517687	5402.00000000
691.75950595	5458.00000000
692.24386373	5407.00000000
692.72825017	5516.00000000
693.21266523	5422.00000000
693.69710889	5354.00000000
694.18158109	5365.00000000
694.66608181	5402.00000000
695.15061101	5318.00000000
695.63516866	5349.00000000
696.11975470	5359.00000000
696.60436912	5396.00000000
697.08901187	5321.00000000
697.57368291	5302.00000000
698.05838221	5260.00000000
698.54310973	5325.00000000
699.02786544	5288.00000000
699.51264929	5335.00000000
699.99746125	5361.00000000
700.48230129	5350.00000000
700.96716936	5302.00000000
701.45206544	5303.00000000
701.93698948	5280.00000000
702.42194144	5310.00000000
702.90692130	5308.00000000
703.39192900	5240.00000000
703.87696453	5399.00000000
704.36202783	5348.00000000
704.84711888	5338.00000000
705.33223763	5319.00000000
705.81738405	5265.00000000
706.30255811	5343.00000000
706.78775976	5297.00000000
707.27298897	5318.00000000
707.75824570	5289.00000000
708.24352991	5206.00000000
708.72884158	5313.00000000
709.21418065	5307.00000000
709.69954710	5209.00000000
710.18494089	5337.00000000
710.67036198	5321.00000000
711.15581034	5310.00000000
711.64128592	5319.00000000
712.12678869	5345.00000000
712.61231862	5320.00000000
713.09787566	5240.00000000
713.58345979	5339.00000000
714.06907095	5359.00000000
714.55470913	5255.00000000
715.04037427	5283.00000000
715.52606635	5260.00000000
716.01178533	5345.00000000
716.49753116	5316.00000000
716.98330382	5328.00000000
717.46910326	5167.00000000
717.95492946	5224.00000000
718.44078236	5210.00000000
718.92666194	5240.00000000
719.41256816	5217.00000000
719.89850098	5204.00000000
720.38446037	5125.00000000
720.87044629	5187.00000000
721.35645870	5150.00000000
721.84249756	5205.00000000
722.32856284	5197.00000000
722.81465450	5182.00000000
723.30077251	5121.00000000
723.78691682	5148.00000000
724.27308741	5108.00000000
724.75928423	5092.00000000
725.24550724	5119.00000000
725.73175642	5111.00000000
726.21803172	5171.00000000
726.70433311	5136.00000000
727.19066055	5018.00000000
727.67701400	5037.00000000
728.16339343	5135.00000000
728.64979880	5068.00000000
729.13623007	5027.00000000
729.62268721	5029.00000000
730.10917018	4961.00000000
730.59567893	5012.00000000
731.08221345	4984.00000000
731.56877369	4986.00000000
732.05535960	5043.00000000
732.54197116	5030.00000000
733.02860834	5044.00000000
733.51527108	4968.00000000
734.00195936	4947.00000000
734.48867313	5010.00000000
734.97541237	4972.00000000
735.46217703	5002.00000000
735.94896708	4913.00000000
736.43578248	5035.00000000
736.92262320	5059.00000000
737.40948919	5038.00000000
737.89638043	5021.00000000
738.38329686	5021.00000000
738.87023847	4974.00000000
739.35720520	4961.00000000
739.84419703	5017.00000000
740.33121392	5057.00000000
740.81825582	4939.00000000
741.30532271	4889.00000000
741.79241455	4951.00000000
742.27953129	4975.00000000
742.76667291	5044.00000000
743.25383936	5025.00000000
743.74103061	4992.00000000
744.22824663	5079.00000000
744.71548737	5000.00000000
745.20275280	4937.00000000
745.69004288	4970.00000000
746.17735758	4989.00000000
746.66469685	4939.00000000
747.15206067	4938.00000000
747.63944899	4965.00000000
748.12686178	4957.00000000
748.61429900	4825.00000000
749.10176061	4944.00000000
749.58924659	4945.00000000
750.07675688	4986.00000000
750.56429146	4966.00000000
751.05185028	4843.00000000
751.53943332	4863.00000000
752.02704053	4788.00000000
752.51467187	4783.00000000
753.00232732	4804.00000000
753.49000683	4861.00000000
753.97771036	4892.00000000
754.46543789	4829.00000000
754.95318936	4825.00000000
755.44096476	4833.00000000
755.92876403	4835.00000000
756.41658715	4802.00000000
756.90443407	4874.00000000
757.39230476	4750.00000000
757.88019918	4735.00000000
758.36811730	4785.00000000
758.85605908	4770.00000000
759.34402448	4785.00000000
759.83201346	4770.00000000
760.32002599	4552.00000000
760.80806203	4218.00000000
761.29612155	4411.00000000
761.78420451	4675.00000000
762.27231086	4745.00000000
762.76044058	4745.00000000
763.24859363	4675.00000000
763.73676997	4619.00000000
764.22496956	4642.00000000
764.71319237	4696.00000000
765.20143836	4653.00000000
765.68970749	4628.00000000
766.17799973	4509.00000000
766.66631504	4575.00000000
767.15465338	4572.00000000
767.64301472	4571.00000000
768.13139902	4563.00000000
768.61980624	4586.00000000
769.10823635	4567.00000000
769.59668930	4580.00000000
770.08516507	4542.00000000
770.57366361	4506.00000000
771.06218489	4527.00000000
771.55072888	4442.00000000
772.03929553	4500.00000000
772.52788480	4504.00000000
773.01649667	4443.00000000
773.50513109	4421.00000000
773.99378804	4492.00000000
774.48246746	4438.00000000
774.97116932	4413.00000000
775.45989360	4453.00000000
775.94864024	4456.00000000
776.43740922	4372.00000000
776.92620050	4420.00000000
777.41501403	4320.00000000
777.90384979	4387.00000000
778.39270774	4358.00000000
778.88158784	4328.00000000
779.37049004	4372.00000000
779.85941433	4236.00000000
780.34836066	4331.00000000
780.83732898	4347.00000000
781.32631928	4340.00000000
781.81533150	4302.00000000
782.30436562	4253.00000000
782.79342159	4309.00000000
783.28249938	4267.00000000
783.77159895	4260.00000000
784.26072027	4239.00000000
784.74986329	4290.00000000
785.23902799	4239.00000000
785.72821432	4145.00000000
786.21742225	4263.00000000
786.70665174	4126.00000000
787.19590276	4204.00000000
787.68517526	4237.00000000
788.17446922	4013.00000000
788.66378459	4134.00000000
789.15312133	4117.00000000
789.64247942	4134.00000000
790.13185881	4175.00000000
790.62125947	4133.00000000
791.11068135	4107.00000000
791.60012443	4079.00000000
792.08958867	4017.00000000
792.57907402	4099.00000000
793.06858046	4006.00000000
793.55810795	4032.00000000
794.04765644	4000.00000000
794.53722591	4004.00000000
795.02681631	4020.00000000
795.51642762	3955.00000000
796.00605978	3985.00000000
796.49571277	3974.00000000
796.98538655	3944.00000000
797.47508108	4000.00000000
797.96479632	3921.00000000
798.45453224	3949.00000000
798.94428881	3897.00000000
799.43406597	3875.00000000
799.92386371	3862.00000000
800.41368198	3735.00000000
800.90352074	3900.00000000
801.39337996	3809.00000000
801.88325960	3721.00000000
802.37315962	3788.00000000
802.86307999	3783.00000000
803.35302067	3785.00000000
803.84298163	3748.00000000
804.33296282	3722.00000000
804.82296421	3732.00000000
805.31298576	3709.00000000
805.80302744	3697.00000000
806.29308921	3465.00000000
806.78317103	3662.00000000
807.27327287	3655.00000000
807.76339468	3635.00000000
808.25353644	3669.00000000
808.74369811	3671.00000000
809.23387964	3580.00000000
809.72408100	3598.00000000
810.21430216	3561.00000000
810.70454308	3604.00000000
811.19480372	3573.00000000
811.68508405	3597.00000000
812.17538402	3603.00000000
812.66570360	3601.00000000
813.15604276	3623.00000000
813.64640146	3566.00000000
814.13677965	3585.00000000
814.62717731	3616.00000000
815.11759440	3554.00000000
815.60803088	3605.00000000
816.09848671	3597.00000000
816.58896185	3572.00000000
817.07945628	3601.00000000
817.56996995	3496.00000000
818.06050283	3582.00000000
818.55105488	3569.00000000
819.04162606	3573.00000000
819.53221633	3618.00000000
820.02282567	3615.00000000
820.51345402	3612.00000000
821.00410137	3585.00000000
821.49476766	3490.00000000
821.98545286	3561.00000000
822.47615694	3575.00000000
822.96687986	3581.00000000

